      SO2
      Post B, Schwartz R S, Fankuchen I
      Acta Crystallographica 5 (1952) 372-374
      The crystal structure of sulfur dioxide
      Sample: T = -130 C
      _database_code_amcsd 0009146

      CELL PARAMETERS:   6.0700  5.9400  6.1400   90.000   90.000   90.000
      SPACE GROUP: Aba2      
      X-RAY WAVELENGTH:     1.541838
      Cell Volume:    221.383
      Density (g/cm3):      1.922
      MAX. ABS. INTENSITY / VOLUME**2:      25.31361553    
      RIR:      4.289
      RIR based on corundum from Acta Crystallographica A38 (1982) 733-739
               2-THETA      INTENSITY    D-SPACING   H   K   L   Multiplicity
                25.51        100.00        3.4920    1   1   1         4
                29.09         21.65        3.0700    0   0   2         1
                29.43          6.08        3.0350    2   0   0         2
                30.09          4.05        2.9700    0   2   0         2
                33.59          6.71        2.6678    1   2   0         4
                36.32         11.85        2.4736    2   1   1         4
                41.85          5.50        2.1583    2   0   2         2
                42.34          5.46        2.1346    0   2   2         2
                42.59          5.74        2.1227    2   2   0         4
                45.02          4.21        2.0137    1   2   2         4
                49.44          4.03        1.8436    1   1   3         4
                49.88          2.91        1.8284    3   1   1         4
                50.73          2.54        1.7997    1   3   1         4
                52.40          4.66        1.7460    2   2   2         4
                56.39          1.74        1.6316    2   1   3         4
                66.91          2.88        1.3984    3   1   3         4
                67.62          3.01        1.3855    1   3   3         4
                67.98          3.93        1.3790    3   3   1         4
                68.50          1.02        1.3698    2   0   4         2
                68.85          1.18        1.3636    0   2   4         2
                69.04          1.07        1.3604    4   0   2         2
                69.57          1.10        1.3513    4   2   0         4
                77.12          1.04        1.2368    4   2   2         4
================================================================================
       XPOW Copyright 1993 Bob Downs, Ranjini Swaminathan and Kurt Bartelmehs
  For reference, see Downs et al. (1993) American Mineralogist 78, 1104-1107.
