      Hg N2
      Hassel O
      Zeitschrift fur Kristallographie 64 (1926) 218-223
      Roentgenographische Untersuchung des tetragonal kristallisierenden
      Quecksilberzyanids.
      _cod_database_code 1010499
      _database_code_amcsd 0017415

      CELL PARAMETERS:   9.6700  9.6700  8.9200   90.000   90.000   90.000
      SPACE GROUP: I-42d     
      X-RAY WAVELENGTH:     1.541838
      Cell Volume:    834.099
      Density (g/cm3):      6.388
      MAX. ABS. INTENSITY / VOLUME**2:      634.7429368    
      RIR:     32.352
      RIR based on corundum from Acta Crystallographica A38 (1982) 733-739
               2-THETA      INTENSITY    D-SPACING   H   K   L   Multiplicity
                18.35         86.99        4.8350    2   0   0         4
                23.82        100.00        3.7356    1   1   2         4
                26.06         32.72        3.4189    2   2   0         4
                35.60         53.64        2.5221    3   1   2         8
                37.19          9.70        2.4175    4   0   0         4
                40.45          6.44        2.2300    0   0   4         2
                41.77         11.68        2.1623    4   2   0         8
                42.54          1.20        2.1254    4   0   2         8
                44.65         10.18        2.0296    3   3   2         4
                44.75         16.74        2.0250    2   0   4         8
                47.97          1.67        1.8964    5   1   0         8
                48.75         11.19        1.8678    2   2   4         4
                52.43          9.43        1.7452    5   1   2         8
                53.61          1.54        1.7094    4   4   0         4
                56.11          5.46        1.6391    4   0   4         8
                57.15          1.23        1.6117    6   0   0         4
                59.47          4.11        1.5544    5   3   2         8
                59.55          7.57        1.5524    4   2   4         8
                60.56          1.58        1.5290    6   2   0         8
                61.14          1.53        1.5157    6   0   2         8
                64.10          5.57        1.4527    1   1   6         4
                64.42          1.93        1.4463    6   2   2         8
                64.50          1.27        1.4447    5   1   4         8
                68.63          1.58        1.3675    7   1   0         8
                69.25          1.32        1.3567    4   4   4         4
                70.42          6.26        1.3370    3   1   6         8
                72.26          1.22        1.3075    7   1   2         8
                72.34          1.12        1.3062    6   0   4         8
                75.37          1.54        1.2610    6   2   4         8
                76.50          1.77        1.2452    3   3   6         4
                82.43          2.18        1.1700    5   1   6         8
                82.72          1.35        1.1667    8   0   2         8
                82.80          1.77        1.1658    7   1   4         8
                85.65          2.05        1.1341    8   2   2         8
                88.28          1.21        1.1070    5   3   6         8
================================================================================
       XPOW Copyright 1993 Bob Downs, Ranjini Swaminathan and Kurt Bartelmehs
  For reference, see Downs et al. (1993) American Mineralogist 78, 1104-1107.
